File: projects/uvvis_analysis/PolymerB/PolymerB_1.txt
"RawData"
"Wavelength nm."	"Abs."
200.00
203.00
206.00
209.00
212.00
215.00
218.00
221.00
224.00
227.00
230.00
233.00
236.00
239.00
242.00
245.00
248.00
251.00	0.590138
254.00	0.510304
257.00	0.422823
260.00	0.353322
263.00	0.308757
266.00	0.286310
269.00	0.281745
272.00	0.291300
275.00	0.312571
278.00	0.345867
281.00	0.392546
284.00	0.451489
287.00	0.522930
290.00	0.608207
293.00	0.706575
296.00	0.813722
299.00	0.921766
302.00	1.024004
305.00	1.130625
308.00	1.216926
311.00	1.274870
314.00	1.296110
317.00	1.314000
320.00	1.343508
323.00	1.299030
326.00	1.232703
329.00	1.198986
332.00	1.193238
335.00	1.185705
338.00	1.140207
341.00	1.036367
344.00	0.868719
347.00	0.676316
350.00	0.503244
353.00	0.378481
356.00	0.303065
359.00	0.267943
362.00	0.258900
365.00	0.265127
368.00	0.278664
371.00	0.298855
374.00	0.322595
377.00	0.350349
380.00	0.379197
383.00	0.411085
386.00	0.444634
389.00	0.480366
392.00	0.519117
395.00	0.559075
398.00	0.600236
401.00	0.644158
404.00	0.692736
407.00	0.740194
410.00	0.792558
413.00	0.847531
416.00	0.901787
419.00	0.958318
422.00	1.015223
425.00	1.070001
428.00	1.123909
431.00	1.174663
434.00	1.221576
437.00	1.264168
440.00	1.299487
443.00	1.326431
446.00	1.345643
449.00	1.355180
452.00	1.352018
455.00	1.334615
458.00	1.301688
461.00	1.250374
464.00	1.182358
467.00	1.095048
470.00	0.993532
473.00	0.883708
476.00	0.764933
479.00	0.646179
482.00	0.531322
485.00	0.426126
488.00	0.333591
491.00	0.255280
494.00	0.189625
497.00	0.137377
500.00	0.096762
503.00	0.065298
506.00	0.042873
509.00	0.026575
512.00	0.014836
515.00	0.007271
518.00	0.001993
521.00	-0.001659
524.00	-0.003968
527.00	-0.005410
530.00	-0.006435
533.00	-0.007084
536.00	-0.007285
539.00	-0.008268
542.00	-0.008602
545.00	-0.008372
548.00	-0.008288
551.00	-0.008282
554.00	-0.008420
557.00	-0.008120
560.00	-0.007869
563.00	-0.007980
566.00	-0.007708
569.00	-0.007566
572.00	-0.007470
575.00	-0.007412
578.00	-0.007414
581.00	-0.007246
584.00	-0.007296
587.00	-0.006896
590.00	-0.006843
593.00	-0.006429
596.00	-0.006375
599.00	-0.006407
602.00	-0.006184
605.00	-0.006239
608.00	-0.006164
611.00	-0.006096
614.00	-0.005863
617.00	-0.005510
620.00	-0.005772
623.00	-0.005347
626.00	-0.005652
629.00	-0.005066
632.00	-0.005160
635.00	-0.005300
638.00	-0.004732
641.00	-0.004639
644.00	-0.004631
647.00	-0.004321
650.00	-0.004275
653.00	-0.003995
656.00	-0.003891
659.00	-0.004041
662.00	-0.004218
665.00	-0.003848
668.00	-0.003878
671.00	-0.003770
674.00	-0.003481
677.00	-0.003344
680.00	-0.003141
683.00	-0.003360
686.00	-0.003092
689.00	-0.002838
692.00	-0.002579
695.00	-0.002662
698.00	-0.002354
701.00
704.00
707.00
710.00
713.00
716.00
719.00
722.00
725.00
728.00
731.00
734.00
737.00
740.00
743.00
746.00
749.00
752.00
755.00
758.00
761.00
764.00
767.00
770.00
773.00
776.00
779.00
782.00
785.00
788.00
791.00
794.00
797.00
800.00
803.00
806.00
809.00
812.00
815.00
818.00
821.00
824.00
827.00
830.00
833.00
836.00
839.00
842.00
845.00
848.00
851.00
854.00
857.00
860.00
863.00
866.00
869.00
872.00
875.00
878.00
881.00
884.00
887.00
890.00
893.00
896.00
899.00
900.00