File: projects/uvvis_analysis/PolymerB/PolymerB_5.txt
"RawData"
"Wavelength nm."	"Abs."
200.00
203.00
206.00
209.00
212.00
215.00
218.00
221.00
224.00
227.00
230.00
233.00
236.00
239.00
242.00
245.00
248.00
251.00	0.010235
254.00	0.005055
257.00	-0.000596
260.00	-0.005122
263.00	-0.009185
266.00	-0.009914
269.00	-0.010329
272.00	-0.009138
275.00	-0.008658
278.00	-0.006816
281.00	-0.004527
284.00	-0.000556
287.00	0.003457
290.00	0.008911
293.00	0.015313
296.00	0.024154
299.00	0.031586
302.00	0.038627
305.00	0.045842
308.00	0.050810
311.00	0.055691
314.00	0.057310
317.00	0.057825
320.00	0.058692
323.00	0.057721
326.00	0.054013
329.00	0.052474
332.00	0.052563
335.00	0.052292
338.00	0.050352
341.00	0.044047
344.00	0.033987
347.00	0.023289
350.00	0.013397
353.00	0.005198
356.00	0.000393
359.00	-0.001762
362.00	-0.001354
365.00	-0.000607
368.00	-0.000316
371.00	0.001347
374.00	0.002434
377.00	0.004065
380.00	0.005903
383.00	0.008060
386.00	0.010423
389.00	0.012365
392.00	0.014821
395.00	0.017088
398.00	0.019612
401.00	0.022305
404.00	0.025533
407.00	0.028547
410.00	0.031465
413.00	0.035251
416.00	0.038896
419.00	0.041976
422.00	0.045559
425.00	0.049312
428.00	0.052483
431.00	0.055718
434.00	0.058791
437.00	0.061593
440.00	0.063437
443.00	0.065299
446.00	0.066624
449.00	0.067510
452.00	0.067297
455.00	0.066749
458.00	0.064787
461.00	0.062009
464.00	0.058270
467.00	0.053294
470.00	0.047197
473.00	0.041251
476.00	0.034377
479.00	0.027376
482.00	0.021005
485.00	0.014650
488.00	0.009492
491.00	0.005055
494.00	0.001213
497.00	-0.001389
500.00	-0.003515
503.00	-0.005356
506.00	-0.006280
509.00	-0.007192
512.00	-0.007892
515.00	-0.008304
518.00	-0.008211
521.00	-0.008262
524.00	-0.008086
527.00	-0.007813
530.00	-0.008046
533.00	-0.007650
536.00	-0.007627
539.00	-0.008029
542.00	-0.007966
545.00	-0.007479
548.00	-0.007419
551.00	-0.007184
554.00	-0.007132
557.00	-0.006735
560.00	-0.006254
563.00	-0.006111
566.00	-0.005748
569.00	-0.005169
572.00	-0.005015
575.00	-0.005164
578.00	-0.005260
581.00	-0.004941
584.00	-0.004994
587.00	-0.004884
590.00	-0.005098
593.00	-0.004873
596.00	-0.004886
599.00	-0.004950
602.00
605.00
608.00
611.00
614.00
617.00
620.00
623.00
626.00
629.00
632.00
635.00
638.00
641.00
644.00
647.00
650.00
653.00
656.00
659.00
662.00
665.00
668.00
671.00
674.00
677.00
680.00
683.00
686.00
689.00
692.00
695.00
698.00
701.00
704.00
707.00
710.00
713.00
716.00
719.00
722.00
725.00
728.00
731.00
734.00
737.00
740.00
743.00
746.00
749.00
752.00
755.00
758.00
761.00
764.00
767.00
770.00
773.00
776.00
779.00
782.00
785.00
788.00
791.00
794.00
797.00
800.00
803.00
806.00
809.00
812.00
815.00
818.00
821.00
824.00
827.00
830.00
833.00
836.00
839.00
842.00
845.00
848.00
851.00
854.00
857.00
860.00
863.00
866.00
869.00
872.00
875.00
878.00
881.00
884.00
887.00
890.00
893.00
896.00
899.00
900.00