File: projects/uvvis_analysis/PolymerB/PolymerB_2.txt
"RawData"
"Wavelength nm."	"Abs."
200.00
203.00
206.00
209.00
212.00
215.00
218.00
221.00
224.00
227.00
230.00
233.00
236.00
239.00
242.00
245.00
248.00
251.00	1.399424
254.00	1.188780
257.00	0.834602
260.00	0.539868
263.00	0.386811
266.00	0.312989
269.00	0.275438
272.00	0.262034
275.00	0.270048
278.00	0.287508
281.00	0.315890
284.00	0.353459
287.00	0.392932
290.00	0.429393
293.00	0.462790
296.00	0.511003
299.00	0.550988
302.00	0.566186
305.00	0.586818
308.00	0.617212
311.00	0.640728
314.00	0.650493
317.00	0.659669
320.00	0.674096
323.00	0.652412
326.00	0.617675
329.00	0.599347
332.00	0.597394
335.00	0.594495
338.00	0.571273
341.00	0.518486
344.00	0.434147
347.00	0.336014
350.00	0.248331
353.00	0.184383
356.00	0.145970
359.00	0.128145
362.00	0.123601
365.00	0.126853
368.00	0.134423
371.00	0.144830
374.00	0.156229
377.00	0.170053
380.00	0.184199
383.00	0.199874
386.00	0.217055
389.00	0.235038
392.00	0.254609
395.00	0.274517
398.00	0.295363
401.00	0.318046
404.00	0.342333
407.00	0.366646
410.00	0.392799
413.00	0.420973
416.00	0.449097
419.00	0.477417
422.00	0.506711
425.00	0.534459
428.00	0.561640
431.00	0.588343
434.00	0.611856
437.00	0.633729
440.00	0.651641
443.00	0.665480
446.00	0.676004
449.00	0.681006
452.00	0.679251
455.00	0.670912
458.00	0.653754
461.00	0.628241
464.00	0.593772
467.00	0.549434
470.00	0.497485
473.00	0.442290
476.00	0.381745
479.00	0.321715
482.00	0.263883
485.00	0.210075
488.00	0.163792
491.00	0.123997
494.00	0.090809
497.00	0.064634
500.00	0.043797
503.00	0.028155
506.00	0.016919
509.00	0.008819
512.00	0.002840
515.00	-0.001022
518.00	-0.003720
521.00	-0.005610
524.00	-0.006536
527.00	-0.007020
530.00	-0.007389
533.00	-0.007503
536.00	-0.007660
539.00	-0.008467
542.00	-0.008400
545.00	-0.008036
548.00	-0.008284
551.00	-0.007994
554.00	-0.008080
557.00	-0.008008
560.00	-0.007545
563.00	-0.007427
566.00	-0.007457
569.00	-0.007046
572.00	-0.007212
575.00	-0.007009
578.00	-0.007006
581.00	-0.006828
584.00	-0.006795
587.00	-0.006331
590.00	-0.006349
593.00	-0.006139
596.00	-0.006027
599.00	-0.005922
602.00
605.00
608.00
611.00
614.00
617.00
620.00
623.00
626.00
629.00
632.00
635.00
638.00
641.00
644.00
647.00
650.00
653.00
656.00
659.00
662.00
665.00
668.00
671.00
674.00
677.00
680.00
683.00
686.00
689.00
692.00
695.00
698.00
701.00
704.00
707.00
710.00
713.00
716.00
719.00
722.00
725.00
728.00
731.00
734.00
737.00
740.00
743.00
746.00
749.00
752.00
755.00
758.00
761.00
764.00
767.00
770.00
773.00
776.00
779.00
782.00
785.00
788.00
791.00
794.00
797.00
800.00
803.00
806.00
809.00
812.00
815.00
818.00
821.00
824.00
827.00
830.00
833.00
836.00
839.00
842.00
845.00
848.00
851.00
854.00
857.00
860.00
863.00
866.00
869.00
872.00
875.00
878.00
881.00
884.00
887.00
890.00
893.00
896.00
899.00
900.00