File: projects/uvvis_analysis/PolymerA/PolymerA_3.txt
"RawData"
"Wavelength nm."	"Abs."
300.00	0.098539
303.00	0.094181
306.00	0.091091
309.00	0.088543
312.00	0.085561
315.00	0.082635
318.00	0.080076
321.00	0.076950
324.00	0.075644
327.00	0.072640
330.00	0.073499
333.00	0.072699
336.00	0.073730
339.00	0.073659
342.00	0.072659
345.00	0.074017
348.00	0.075652
351.00	0.075011
354.00	0.074928
357.00	0.075828
360.00	0.077222
363.00	0.077682
366.00	0.079471
369.00	0.081136
372.00	0.083297
375.00	0.085594
378.00	0.088209
381.00	0.091610
384.00	0.094543
387.00	0.098874
390.00	0.103356
393.00	0.108300
396.00	0.113582
399.00	0.118915
402.00	0.125085
405.00	0.131167
408.00	0.138085
411.00	0.144479
414.00	0.151229
417.00	0.158917
420.00	0.165133
423.00	0.171670
426.00	0.178357
429.00	0.184506
432.00	0.190128
435.00	0.195485
438.00	0.199995
441.00	0.203456
444.00	0.205458
447.00	0.206860
450.00	0.206219
453.00	0.204331
456.00	0.201364
459.00	0.196726
462.00	0.190832
465.00	0.184176
468.00	0.175572
471.00	0.166011
474.00	0.154850
477.00	0.142290
480.00	0.127992
483.00	0.112886
486.00	0.097258
489.00	0.082081
492.00	0.067588
495.00	0.053992
498.00	0.042982
501.00	0.033314
504.00	0.025984
507.00	0.020693
510.00	0.017073
513.00	0.014580
516.00	0.013042
519.00	0.012369
522.00	0.011578
525.00	0.011256
528.00	0.011055
531.00	0.010971
534.00	0.010855
537.00	0.010515
540.00	0.010478
543.00	0.010226
546.00	0.010277
549.00	0.010389
552.00	0.010300
555.00	0.010525
558.00	0.010392
561.00	0.010274
564.00	0.010201
567.00	0.010202
570.00	0.010119
573.00	0.010228
576.00	0.010366
579.00	0.010113
582.00	0.010138
585.00	0.009812
588.00	0.010013
591.00	0.009973
594.00	0.009736
597.00	0.009846
600.00	0.009851
603.00	0.009802
606.00	0.009715
609.00	0.009778
612.00	0.010026
615.00	0.009585
618.00	0.009711
621.00	0.009551
624.00	0.009779
627.00	0.009678
630.00	0.009760
633.00	0.009652
636.00	0.009704
639.00	0.009734
642.00	0.009715
645.00	0.009506
648.00	0.009456
651.00	0.009646
654.00	0.009369
657.00	0.009349
660.00	0.009468
663.00	0.009477
666.00	0.009088
669.00	0.009338
672.00	0.009514
675.00	0.009421
678.00	0.009443
681.00	0.009338
684.00	0.009256
687.00	0.009478
690.00	0.009153
693.00	0.009136
696.00	0.009470
699.00	0.008984
702.00
705.00
708.00
711.00
714.00
717.00
720.00
723.00
726.00
729.00
732.00
735.00
738.00
741.00
744.00
747.00
750.00
753.00
756.00
759.00
762.00
765.00
768.00
771.00
774.00
777.00
780.00
783.00
786.00
789.00
792.00
795.00
798.00
801.00
804.00
807.00
810.00
813.00
816.00
819.00
822.00
825.00
828.00
831.00
834.00
837.00
840.00
843.00
846.00
849.00
852.00
855.00
858.00
861.00
864.00
867.00
870.00
873.00
876.00
879.00
882.00
885.00
888.00
891.00
894.00
897.00
900.00