File: projects/uvvis_analysis/PolymerA/PolymerA_4.txt
"RawData"
"Wavelength nm."	"Abs."
300.00	0.056557
303.00	0.054519
306.00	0.053230
309.00	0.050955
312.00	0.049823
315.00	0.048059
318.00	0.046719
321.00	0.045214
324.00	0.044830
327.00	0.043501
330.00	0.043887
333.00	0.043376
336.00	0.042732
339.00	0.043553
342.00	0.042918
345.00	0.041855
348.00	0.043361
351.00	0.043355
354.00	0.042696
357.00	0.042823
360.00	0.043143
363.00	0.043464
366.00	0.043780
369.00	0.045039
372.00	0.045586
375.00	0.046966
378.00	0.047950
381.00	0.049406
384.00	0.051146
387.00	0.052773
390.00	0.054412
393.00	0.056819
396.00	0.059570
399.00	0.061788
402.00	0.064637
405.00	0.067406
408.00	0.070452
411.00	0.073446
414.00	0.076647
417.00	0.079845
420.00	0.082886
423.00	0.085588
426.00	0.088716
429.00	0.091471
432.00	0.094169
435.00	0.096697
438.00	0.098610
441.00	0.100091
444.00	0.100996
447.00	0.101498
450.00	0.101264
453.00	0.100485
456.00	0.098954
459.00	0.096920
462.00	0.094134
465.00	0.091111
468.00	0.087156
471.00	0.082601
474.00	0.077205
477.00	0.071578
480.00	0.065039
483.00	0.057909
486.00	0.050717
489.00	0.043744
492.00	0.037100
495.00	0.030736
498.00	0.025720
501.00	0.021461
504.00	0.018056
507.00	0.015505
510.00	0.013683
513.00	0.012703
516.00	0.011876
519.00	0.011534
522.00	0.011332
525.00	0.010948
528.00	0.011202
531.00	0.010984
534.00	0.010865
537.00	0.010835
540.00	0.010814
543.00	0.010452
546.00	0.010566
549.00	0.010830
552.00	0.010521
555.00	0.010533
558.00	0.010632
561.00	0.010528
564.00	0.010344
567.00	0.010342
570.00	0.010296
573.00	0.010479
576.00	0.010275
579.00	0.010301
582.00	0.010306
585.00	0.010055
588.00	0.010144
591.00	0.010022
594.00	0.009915
597.00	0.010077
600.00	0.010098
603.00	0.010051
606.00	0.009998
609.00	0.010008
612.00	0.010064
615.00	0.009816
618.00	0.009883
621.00	0.009890
624.00	0.010128
627.00	0.009788
630.00	0.009953
633.00	0.009946
636.00	0.009912
639.00	0.009922
642.00	0.009739
645.00	0.009805
648.00	0.009583
651.00	0.009870
654.00	0.009492
657.00	0.009529
660.00	0.009644
663.00	0.009623
666.00	0.009351
669.00	0.009375
672.00	0.009669
675.00	0.009694
678.00	0.009215
681.00	0.009657
684.00	0.009601
687.00	0.009431
690.00	0.009018
693.00	0.009156
696.00	0.009390
699.00	0.009156
702.00
705.00
708.00
711.00
714.00
717.00
720.00
723.00
726.00
729.00
732.00
735.00
738.00
741.00
744.00
747.00
750.00
753.00
756.00
759.00
762.00
765.00
768.00
771.00
774.00
777.00
780.00
783.00
786.00
789.00
792.00
795.00
798.00
801.00
804.00
807.00
810.00
813.00
816.00
819.00
822.00
825.00
828.00
831.00
834.00
837.00
840.00
843.00
846.00
849.00
852.00
855.00
858.00
861.00
864.00
867.00
870.00
873.00
876.00
879.00
882.00
885.00
888.00
891.00
894.00
897.00
900.00