File: phd_uvvis_analysis/PolymerA/PolymerA_2.txt
"RawData"
"Wavelength nm."	"Abs."
300.00	0.235085
303.00	0.226819
306.00	0.220276
309.00	0.212284
312.00	0.204596
315.00	0.196869
318.00	0.189474
321.00	0.183089
324.00	0.177432
327.00	0.173726
330.00	0.172711
333.00	0.171664
336.00	0.172779
339.00	0.173764
342.00	0.174542
345.00	0.176021
348.00	0.177999
351.00	0.178978
354.00	0.179971
357.00	0.182205
360.00	0.185207
363.00	0.188018
366.00	0.192215
369.00	0.197023
372.00	0.201656
375.00	0.209611
378.00	0.216819
381.00	0.225905
384.00	0.235379
387.00	0.246714
390.00	0.258735
393.00	0.271967
396.00	0.285512
399.00	0.299935
402.00	0.316357
405.00	0.333547
408.00	0.350735
411.00	0.369144
414.00	0.387536
417.00	0.407105
420.00	0.425146
423.00	0.443660
426.00	0.461465
429.00	0.477624
432.00	0.493298
435.00	0.507478
438.00	0.519551
441.00	0.528419
444.00	0.534437
447.00	0.536789
450.00	0.536140
453.00	0.531687
456.00	0.522669
459.00	0.510526
462.00	0.495577
465.00	0.476320
468.00	0.453901
471.00	0.427515
474.00	0.397419
477.00	0.363211
480.00	0.324561
483.00	0.284158
486.00	0.242048
489.00	0.200871
492.00	0.162113
495.00	0.125945
498.00	0.096255
501.00	0.070510
504.00	0.051170
507.00	0.037289
510.00	0.027190
513.00	0.021177
516.00	0.017027
519.00	0.014575
522.00	0.012904
525.00	0.012065
528.00	0.011718
531.00	0.011442
534.00	0.011265
537.00	0.010829
540.00	0.010863
543.00	0.010409
546.00	0.010416
549.00	0.010732
552.00	0.010432
555.00	0.010682
558.00	0.010467
561.00	0.010421
564.00	0.010244
567.00	0.010112
570.00	0.009972
573.00	0.010057
576.00	0.010104
579.00	0.010191
582.00	0.010100
585.00	0.009857
588.00	0.009898
591.00	0.010006
594.00	0.009691
597.00	0.009833
600.00	0.009789
603.00	0.009737
606.00	0.009694
609.00	0.009757
612.00	0.009712
615.00	0.009679
618.00	0.009543
621.00	0.009485
624.00	0.009861
627.00	0.009674
630.00	0.009667
633.00	0.009743
636.00	0.009601
639.00	0.009798
642.00	0.009628
645.00	0.009485
648.00	0.009431
651.00	0.009622
654.00	0.009409
657.00	0.009248
660.00	0.009417
663.00	0.009596
666.00	0.009053
669.00	0.009648
672.00	0.009493
675.00	0.009533
678.00	0.009364
681.00	0.009464
684.00	0.009445
687.00	0.009591
690.00	0.009357
693.00	0.009175
696.00	0.009561
699.00	0.009213
702.00
705.00
708.00
711.00
714.00
717.00
720.00
723.00
726.00
729.00
732.00
735.00
738.00
741.00
744.00
747.00
750.00
753.00
756.00
759.00
762.00
765.00
768.00
771.00
774.00
777.00
780.00
783.00
786.00
789.00
792.00
795.00
798.00
801.00
804.00
807.00
810.00
813.00
816.00
819.00
822.00
825.00
828.00
831.00
834.00
837.00
840.00
843.00
846.00
849.00
852.00
855.00
858.00
861.00
864.00
867.00
870.00
873.00
876.00
879.00
882.00
885.00
888.00
891.00
894.00
897.00
900.00