File: phd_uvvis_analysis/PolymerA/PolymerA_5.txt
"RawData"
"Wavelength nm."	"Abs."
300.00	0.051875
303.00	0.050236
306.00	0.048337
309.00	0.046887
312.00	0.045593
315.00	0.043778
318.00	0.042255
321.00	0.042260
324.00	0.041561
327.00	0.039882
330.00	0.040881
333.00	0.039978
336.00	0.039699
339.00	0.039348
342.00	0.038034
345.00	0.038655
348.00	0.039363
351.00	0.038778
354.00	0.038211
357.00	0.038047
360.00	0.037769
363.00	0.037682
366.00	0.037423
369.00	0.037065
372.00	0.036835
375.00	0.035951
378.00	0.036306
381.00	0.036702
384.00	0.036744
387.00	0.037700
390.00	0.037862
393.00	0.038969
396.00	0.040041
399.00	0.040831
402.00	0.042141
405.00	0.043252
408.00	0.044649
411.00	0.046135
414.00	0.046871
417.00	0.047881
420.00	0.048579
423.00	0.049868
426.00	0.051130
429.00	0.052201
432.00	0.053217
435.00	0.054286
438.00	0.055314
441.00	0.055816
444.00	0.055862
447.00	0.056148
450.00	0.055612
453.00	0.055406
456.00	0.054387
459.00	0.053708
462.00	0.052211
465.00	0.050548
468.00	0.049049
471.00	0.046905
474.00	0.044361
477.00	0.041880
480.00	0.038415
483.00	0.035553
486.00	0.032329
489.00	0.029113
492.00	0.025973
495.00	0.023329
498.00	0.021070
501.00	0.019073
504.00	0.017418
507.00	0.016319
510.00	0.015414
513.00	0.015025
516.00	0.014605
519.00	0.014476
522.00	0.014051
525.00	0.013999
528.00	0.014088
531.00	0.013718
534.00	0.013814
537.00	0.013380
540.00	0.013434
543.00	0.013092
546.00	0.013277
549.00	0.013322
552.00	0.013219
555.00	0.013173
558.00	0.012822
561.00	0.013083
564.00	0.012748
567.00	0.012664
570.00	0.012559
573.00	0.012604
576.00	0.012493
579.00	0.012384
582.00	0.012403
585.00	0.012025
588.00	0.012277
591.00	0.011961
594.00	0.011896
597.00	0.011913
600.00	0.011952
603.00	0.011897
606.00	0.011834
609.00	0.011598
612.00	0.011690
615.00	0.011591
618.00	0.011497
621.00	0.011364
624.00	0.011747
627.00	0.011545
630.00	0.011534
633.00	0.011584
636.00	0.011386
639.00	0.011615
642.00	0.011440
645.00	0.011023
648.00	0.011056
651.00	0.011376
654.00	0.010995
657.00	0.010899
660.00	0.010942
663.00	0.010858
666.00	0.010575
669.00	0.010849
672.00	0.010885
675.00	0.010919
678.00	0.010448
681.00	0.010556
684.00	0.010535
687.00	0.010627
690.00	0.010115
693.00	0.010226
696.00	0.010479
699.00	0.010129
702.00
705.00
708.00
711.00
714.00
717.00
720.00
723.00
726.00
729.00
732.00
735.00
738.00
741.00
744.00
747.00
750.00
753.00
756.00
759.00
762.00
765.00
768.00
771.00
774.00
777.00
780.00
783.00
786.00
789.00
792.00
795.00
798.00
801.00
804.00
807.00
810.00
813.00
816.00
819.00
822.00
825.00
828.00
831.00
834.00
837.00
840.00
843.00
846.00
849.00
852.00
855.00
858.00
861.00
864.00
867.00
870.00
873.00
876.00
879.00
882.00
885.00
888.00
891.00
894.00
897.00
900.00