File: phd_uvvis_analysis/PolymerA/PolymerA_1.txt
"RawData"
"Wavelength nm."	"Abs."
300.00	0.478050
303.00	0.458952
306.00	0.445388
309.00	0.428776
312.00	0.414376
315.00	0.400054
318.00	0.384681
321.00	0.368933
324.00	0.357817
327.00	0.348648
330.00	0.345231
333.00	0.344401
336.00	0.346175
339.00	0.347834
342.00	0.349936
345.00	0.352004
348.00	0.356875
351.00	0.359936
354.00	0.363534
357.00	0.368337
360.00	0.374745
363.00	0.382801
366.00	0.392777
369.00	0.403153
372.00	0.416764
375.00	0.432059
378.00	0.449125
381.00	0.468437
384.00	0.489739
387.00	0.513647
390.00	0.539498
393.00	0.567411
396.00	0.596695
399.00	0.628292
402.00	0.662548
405.00	0.698750
408.00	0.735391
411.00	0.774905
414.00	0.814145
417.00	0.854898
420.00	0.894639
423.00	0.934277
426.00	0.971441
429.00	1.006979
432.00	1.040176
435.00	1.071377
438.00	1.096220
441.00	1.116621
444.00	1.129665
447.00	1.135888
450.00	1.133613
453.00	1.125036
456.00	1.106645
459.00	1.081120
462.00	1.048623
465.00	1.009131
468.00	0.960571
471.00	0.906276
474.00	0.842750
477.00	0.769168
480.00	0.688267
483.00	0.600904
486.00	0.512006
489.00	0.424126
492.00	0.340513
495.00	0.263183
498.00	0.198319
501.00	0.143768
504.00	0.102028
507.00	0.071569
510.00	0.050528
513.00	0.036454
516.00	0.027452
519.00	0.022492
522.00	0.019201
525.00	0.017327
528.00	0.016517
531.00	0.015926
534.00	0.015376
537.00	0.014663
540.00	0.014704
543.00	0.014380
546.00	0.014400
549.00	0.014415
552.00	0.014402
555.00	0.014437
558.00	0.014370
561.00	0.014428
564.00	0.014085
567.00	0.013968
570.00	0.014039
573.00	0.014038
576.00	0.014079
579.00	0.013987
582.00	0.014033
585.00	0.013624
588.00	0.013895
591.00	0.013811
594.00	0.013531
597.00	0.013811
600.00	0.013493
603.00	0.013800
606.00	0.013676
609.00	0.013635
612.00	0.013464
615.00	0.013248
618.00	0.013317
621.00	0.013412
624.00	0.013506
627.00	0.013502
630.00	0.013512
633.00	0.013568
636.00	0.013465
639.00	0.013333
642.00	0.013356
645.00	0.013408
648.00	0.013128
651.00	0.013542
654.00	0.013397
657.00	0.013113
660.00	0.013308
663.00	0.013280
666.00	0.013164
669.00	0.013194
672.00	0.013248
675.00	0.013297
678.00	0.013188
681.00	0.012933
684.00	0.012864
687.00	0.013008
690.00	0.012694
693.00	0.012692
696.00	0.013201
699.00	0.012769
702.00
705.00
708.00
711.00
714.00
717.00
720.00
723.00
726.00
729.00
732.00
735.00
738.00
741.00
744.00
747.00
750.00
753.00
756.00
759.00
762.00
765.00
768.00
771.00
774.00
777.00
780.00
783.00
786.00
789.00
792.00
795.00
798.00
801.00
804.00
807.00
810.00
813.00
816.00
819.00
822.00
825.00
828.00
831.00
834.00
837.00
840.00
843.00
846.00
849.00
852.00
855.00
858.00
861.00
864.00
867.00
870.00
873.00
876.00
879.00
882.00
885.00
888.00
891.00
894.00
897.00
900.00