File: phd_uvvis_analysis/PolymerB/PolymerB_0.txt
"RawData"
"Wavelength nm."	"Abs."
200.00
203.00
206.00
209.00
212.00
215.00
218.00
221.00
224.00
227.00
230.00
233.00
236.00
239.00
242.00
245.00
248.00
251.00	2.934102
254.00	2.618893
257.00	2.207279
260.00	1.857236
263.00	1.630943
266.00	1.520259
269.00	1.496041
272.00	1.543880
275.00	1.653473
278.00	1.822580
281.00	2.060873
284.00	2.355835
287.00	2.686629
290.00	3.014184
293.00	3.270963
296.00	3.386799
299.00	3.461116
302.00	3.459977
305.00	3.487245
308.00	3.546367
311.00	3.562899
314.00	3.569739
317.00	3.575599
320.00	3.592474
323.00	3.571442
326.00	3.574215
329.00	3.606140
332.00	3.550970
335.00	3.599906
338.00	3.580111
341.00	3.566826
344.00	3.534464
347.00	3.257121
350.00	2.618458
353.00	2.012880
356.00	1.633530
359.00	1.455667
362.00	1.407178
365.00	1.437140
368.00	1.509960
371.00	1.612804
374.00	1.734810
377.00	1.872683
380.00	2.017685
383.00	2.174767
386.00	2.341496
389.00	2.516833
392.00	2.694602
395.00	2.857941
398.00	3.034448
401.00	3.182537
404.00	3.309101
407.00	3.405107
410.00	3.482420
413.00	3.517999
416.00	3.539942
419.00	3.513972
422.00	3.525284
425.00	3.519296
428.00	3.526747
431.00	3.518903
434.00	3.524376
437.00	3.514933
440.00	3.499507
443.00	3.508529
446.00	3.495525
449.00	3.494308
452.00	3.494182
455.00	3.488506
458.00	3.477075
461.00	3.464328
464.00	3.455271
467.00	3.456052
470.00	3.438550
473.00	3.419885
476.00	3.337480
479.00	3.114747
482.00	2.712164
485.00	2.225170
488.00	1.761638
491.00	1.360482
494.00	1.021903
497.00	0.754452
500.00	0.542870
503.00	0.380352
506.00	0.264891
509.00	0.180702
512.00	0.120489
515.00	0.079798
518.00	0.051992
521.00	0.032936
524.00	0.020270
527.00	0.011928
530.00	0.006633
533.00	0.003050
536.00	0.000680
539.00	-0.001582
542.00	-0.002463
545.00	-0.002807
548.00	-0.003383
551.00	-0.003536
554.00	-0.003809
557.00	-0.003679
560.00	-0.003506
563.00	-0.003711
566.00	-0.003399
569.00	-0.003426
572.00	-0.003518
575.00	-0.003369
578.00	-0.003683
581.00	-0.003514
584.00	-0.003453
587.00	-0.003331
590.00	-0.003247
593.00	-0.003054
596.00	-0.002966
599.00	-0.002900
602.00	-0.002711
605.00	-0.002643
608.00	-0.002808
611.00	-0.002666
614.00	-0.002715
617.00	-0.002529
620.00	-0.002507
623.00	-0.002103
626.00	-0.002047
629.00	-0.001853
632.00	-0.001848
635.00	-0.001973
638.00	-0.001697
641.00	-0.001794
644.00	-0.001794
647.00	-0.001363
650.00	-0.001573
653.00	-0.001477
656.00	-0.001148
659.00	-0.001091
662.00	-0.001138
665.00	-0.000979
668.00	-0.000925
671.00	-0.000983
674.00	-0.001033
677.00	-0.001053
680.00	-0.000646
683.00	-0.000887
686.00	-0.000434
689.00	-0.000254
692.00	-0.000327
695.00	-0.000101
698.00	0.000030
701.00
704.00
707.00
710.00
713.00
716.00
719.00
722.00
725.00
728.00
731.00
734.00
737.00
740.00
743.00
746.00
749.00
752.00
755.00
758.00
761.00
764.00
767.00
770.00
773.00
776.00
779.00
782.00
785.00
788.00
791.00
794.00
797.00
800.00
803.00
806.00
809.00
812.00
815.00
818.00
821.00
824.00
827.00
830.00
833.00
836.00
839.00
842.00
845.00
848.00
851.00
854.00
857.00
860.00
863.00
866.00
869.00
872.00
875.00
878.00
881.00
884.00
887.00
890.00
893.00
896.00
899.00
900.00