File: phd_uvvis_analysis/PolymerB/PolymerB_4.txt
"RawData"
"Wavelength nm."	"Abs."
200.00
203.00
206.00
209.00
212.00
215.00
218.00
221.00
224.00
227.00
230.00
233.00
236.00
239.00
242.00
245.00
248.00
251.00	0.051938
254.00	0.043668
257.00	0.033233
260.00	0.025210
263.00	0.020812
266.00	0.016917
269.00	0.016270
272.00	0.016452
275.00	0.019429
278.00	0.022283
281.00	0.026849
284.00	0.034192
287.00	0.041823
290.00	0.050277
293.00	0.061131
296.00	0.074947
299.00	0.086307
302.00	0.099126
305.00	0.111351
308.00	0.122510
311.00	0.130140
314.00	0.131888
317.00	0.132776
320.00	0.135496
323.00	0.132234
326.00	0.125008
329.00	0.121027
332.00	0.120945
335.00	0.120989
338.00	0.115661
341.00	0.103546
344.00	0.085111
347.00	0.063049
350.00	0.044409
353.00	0.029225
356.00	0.020090
359.00	0.016347
362.00	0.015714
365.00	0.016684
368.00	0.018129
371.00	0.020445
374.00	0.022735
377.00	0.025963
380.00	0.028847
383.00	0.032191
386.00	0.036052
389.00	0.040012
392.00	0.044739
395.00	0.049130
398.00	0.053778
401.00	0.058835
404.00	0.064698
407.00	0.069910
410.00	0.075836
413.00	0.082229
416.00	0.088863
419.00	0.095329
422.00	0.101876
425.00	0.108450
428.00	0.114377
431.00	0.120457
434.00	0.126127
437.00	0.130971
440.00	0.134892
443.00	0.138227
446.00	0.140553
449.00	0.141966
452.00	0.141959
455.00	0.140319
458.00	0.136302
461.00	0.130794
464.00	0.123460
467.00	0.113936
470.00	0.102524
473.00	0.090265
476.00	0.076988
479.00	0.063766
482.00	0.051370
485.00	0.039060
488.00	0.029292
491.00	0.020564
494.00	0.013162
497.00	0.007580
500.00	0.002970
503.00	-0.000217
506.00	-0.002268
509.00	-0.004095
512.00	-0.005522
515.00	-0.006082
518.00	-0.006477
521.00	-0.006895
524.00	-0.006760
527.00	-0.006629
530.00	-0.006738
533.00	-0.006669
536.00	-0.006547
539.00	-0.007124
542.00	-0.007060
545.00	-0.006602
548.00	-0.006788
551.00	-0.006411
554.00	-0.006658
557.00	-0.006265
560.00	-0.006035
563.00	-0.005867
566.00	-0.005575
569.00	-0.005368
572.00	-0.005452
575.00	-0.005300
578.00	-0.005117
581.00	-0.004965
584.00	-0.004861
587.00	-0.004486
590.00	-0.004660
593.00	-0.004370
596.00	-0.004232
599.00	-0.004309
602.00
605.00
608.00
611.00
614.00
617.00
620.00
623.00
626.00
629.00
632.00
635.00
638.00
641.00
644.00
647.00
650.00
653.00
656.00
659.00
662.00
665.00
668.00
671.00
674.00
677.00
680.00
683.00
686.00
689.00
692.00
695.00
698.00
701.00
704.00
707.00
710.00
713.00
716.00
719.00
722.00
725.00
728.00
731.00
734.00
737.00
740.00
743.00
746.00
749.00
752.00
755.00
758.00
761.00
764.00
767.00
770.00
773.00
776.00
779.00
782.00
785.00
788.00
791.00
794.00
797.00
800.00
803.00
806.00
809.00
812.00
815.00
818.00
821.00
824.00
827.00
830.00
833.00
836.00
839.00
842.00
845.00
848.00
851.00
854.00
857.00
860.00
863.00
866.00
869.00
872.00
875.00
878.00
881.00
884.00
887.00
890.00
893.00
896.00
899.00
900.00