File: phd_uvvis_analysis/PolymerB/PolymerB_3.txt
"RawData"
"Wavelength nm."	"Abs."
200.00
203.00
206.00
209.00
212.00
215.00
218.00
221.00
224.00
227.00
230.00
233.00
236.00
239.00
242.00
245.00
248.00
251.00	0.125428
254.00	0.105491
257.00	0.083530
260.00	0.064967
263.00	0.054263
266.00	0.048807
269.00	0.048464
272.00	0.051322
275.00	0.056244
278.00	0.063778
281.00	0.074334
284.00	0.088210
287.00	0.104977
290.00	0.124169
293.00	0.147128
296.00	0.172712
299.00	0.197345
302.00	0.222438
305.00	0.246708
308.00	0.266818
311.00	0.281274
314.00	0.286019
317.00	0.289492
320.00	0.296419
323.00	0.287175
326.00	0.272770
329.00	0.263594
332.00	0.262501
335.00	0.261080
338.00	0.251605
341.00	0.227512
344.00	0.188207
347.00	0.142317
350.00	0.102245
353.00	0.072815
356.00	0.054658
359.00	0.046488
362.00	0.044521
365.00	0.046485
368.00	0.049874
371.00	0.054477
374.00	0.059782
377.00	0.066520
380.00	0.073152
383.00	0.080703
386.00	0.088689
389.00	0.096735
392.00	0.106245
395.00	0.115517
398.00	0.125314
401.00	0.135724
404.00	0.147130
407.00	0.158498
410.00	0.170710
413.00	0.183751
416.00	0.196683
419.00	0.210417
422.00	0.223433
425.00	0.236570
428.00	0.249281
431.00	0.261577
434.00	0.272832
437.00	0.283014
440.00	0.291287
443.00	0.297879
446.00	0.302700
449.00	0.305421
452.00	0.304680
455.00	0.301224
458.00	0.293062
461.00	0.281768
464.00	0.266295
467.00	0.245764
470.00	0.222049
473.00	0.196561
476.00	0.168750
479.00	0.141438
482.00	0.114689
485.00	0.089971
488.00	0.068759
491.00	0.050405
494.00	0.035064
497.00	0.023036
500.00	0.013715
503.00	0.006617
506.00	0.001442
509.00	-0.002241
512.00	-0.004983
515.00	-0.006660
518.00	-0.007802
521.00	-0.008520
524.00	-0.008758
527.00	-0.008757
530.00	-0.008906
533.00	-0.008936
536.00	-0.008887
539.00	-0.009474
542.00	-0.009579
545.00	-0.009381
548.00	-0.008952
551.00	-0.009032
554.00	-0.009075
557.00	-0.008815
560.00	-0.008436
563.00	-0.008640
566.00	-0.008246
569.00	-0.008304
572.00	-0.008245
575.00	-0.008146
578.00	-0.007990
581.00	-0.007789
584.00	-0.007735
587.00	-0.007416
590.00	-0.007252
593.00	-0.007195
596.00	-0.006972
599.00	-0.006913
602.00
605.00
608.00
611.00
614.00
617.00
620.00
623.00
626.00
629.00
632.00
635.00
638.00
641.00
644.00
647.00
650.00
653.00
656.00
659.00
662.00
665.00
668.00
671.00
674.00
677.00
680.00
683.00
686.00
689.00
692.00
695.00
698.00
701.00
704.00
707.00
710.00
713.00
716.00
719.00
722.00
725.00
728.00
731.00
734.00
737.00
740.00
743.00
746.00
749.00
752.00
755.00
758.00
761.00
764.00
767.00
770.00
773.00
776.00
779.00
782.00
785.00
788.00
791.00
794.00
797.00
800.00
803.00
806.00
809.00
812.00
815.00
818.00
821.00
824.00
827.00
830.00
833.00
836.00
839.00
842.00
845.00
848.00
851.00
854.00
857.00
860.00
863.00
866.00
869.00
872.00
875.00
878.00
881.00
884.00
887.00
890.00
893.00
896.00
899.00
900.00